Day fraction since midnight on 	Photometer (mg/L)	Photometer (volts)	Source pressure (Pa)
0.637518544	0.154186398	3.555887699	106593.0859
0.637576449	0.154107556	3.555929899	106584.7891
0.637634296	0.154120475	3.555922985	106588.9688
0.637692252	0.154167682	3.555897713	106576.5234
0.63775012	0.15424341	3.555857182	106561.9531
0.637807931	0.154207334	3.555876494	106569.0391
start			
0.637865848	0.154205114	3.555877686	106571.2813
0.637923659	0.154249653	3.555853844	106581.4766
0.637981577	12.78041744	-0.095507734	106560.0078
0.63803938	24.69805908	-0.980833054	106576.2266
0.638097304	25.72373581	-1.015676856	106556.625
0.638155203	23.30790329	-0.926868737	106541.1094
0.638213096	12.21385479	-0.017544022	106535.0313
0.638270902	17.36635399	-0.575753212	106545.5781
0.638328846	21.27959442	-0.831730902	106558.1406
0.638386669	20.58771706	-0.794107258	106536.4531
0.63844452	22.09558678	-0.872574389	106511.5
0.638502441	23.21110344	-0.922794581	106536.3984
0.638560324	23.15478516	-0.920404255	106525.6016
0.638618154	23.27308655	-0.925408363	106535.5703
0.63867606	22.565588	-0.8944875	106538.1563
0.638733839	22.85006142	-0.90721035	106517.6641
0.638791757	23.5560627	-0.9371171	106509.4063
0.638849594	23.25670433	-0.924719274	106500.8984
0.638907466	23.13637733	-0.91961968	106516.5078
0.63896532	23.1620388	-0.920712888	106504.4219
0.639023209	23.0109787	-0.91423285	106504.6406
0.639081068	22.80117226	-0.905052126	106499.1719
0.639138917	22.31087112	-0.882752478	106502.8594
0.639196873	21.78274536	-0.857347488	106479.6797
0.639254659	21.34346008	-0.83506155	106477.9219
0.639312583	20.97342682	-0.815434635	106473.8125
0.63937045	21.00337219	-0.817052841	106473.2031
0.639428278	21.45784378	-0.840968669	106469.2734
0.639486166	21.89088249	-0.862670183	106462.9766
0.639544047	21.28429985	-0.831977069	106456.9219
0.639601885	20.83811569	-0.80805558	106453.6797
0.63965975	20.80762672	-0.806377769	106457.4922
0.639717664	20.39603806	-0.783167064	106457.1797
0.63977551	20.22104645	-0.772975683	106474.3203
0.639833382	20.13955498	-0.76816231	106454.2266
0.639891231	19.82690811	-0.749289751	106464.7422
0.639949117	18.98304558	-0.694986939	106451.3281
0.640007027	18.20604324	-0.640324891	106438.5078
0.640064954	17.60882759	-0.595016062	106438.5078
0.640122758	17.1711235	-0.559865654	106429.3438
0.640180665	17.29465485	-0.569958031	106426.9219
0.640238474	18.51704407	-0.662766278	106427.9844
0.640296386	18.58113098	-0.667296112	106433.4219
0.640354266	17.75075531	-0.606054962	106438.6875
0.640412148	17.19290543	-0.561655164	106411.9688
0.640470011	16.71594238	-0.521470606	106407.375
0.640527904	16.82476616	-0.530825615	106427.0234
0.640585711	17.03374481	-0.548479557	106414.1875
0.640643649	16.61113358	-0.512354076	106401.0625
0.640701507	16.29458237	-0.484172404	106393.5547
0.640759378	16.17011642	-0.472819835	106406.5313
0.640817238	15.52398586	-0.411320984	106396.7188
0.640875043	15.00473022	-0.358628631	106388.5547
0.640933017	14.27859879	-0.279706031	106377.9609
0.640990841	14.01542854	-0.249508858	106365.8594
0.641048669	13.74620342	-0.217698529	106362.3203
0.641106594	13.94219017	-0.240948468	106365.2188
0.641164468	13.96218777	-0.243292734	106356.3984
0.641222354	14.02959156	-0.25115639	106372.0781
0.641280166	13.93276978	-0.239842415	106366.7344
0.641338098	13.86466122	-0.231811151	106360.75
0.641395866	13.31554031	-0.164812326	106370.7109
0.641453841	13.15233803	-0.144106686	106363.5078
0.64151165	13.26321507	-0.158214197	106351.3281
0.64156949	13.206954	-0.151077315	106348.6875
0.641627444	13.16910267	-0.14625077	106332.2656
0.64168532	12.89761353	-0.111036934	106340.0938
0.64174319	12.06614113	0.003594207	106323.3672
0.641800991	11.60095024	0.072454915	106329.7109
0.641858948	11.27048206	0.123559639	106306.5313
0.64191674	11.14172077	0.143980384	106305.5078
0.641974618	11.26770496	0.123997115	106306.3125
0.64203245	11.47191525	0.092188366	106306.7188
0.64209041	11.4970417	0.088323809	106287.1641
0.642148288	11.36996078	0.107979849	106293.1094
0.642206048	11.3129921	0.116881065	106289.8906
0.642263961	10.8146286	0.197175503	106293.0703
0.64232184	10.61680698	0.230288982	106279.3047
0.642379688	10.66476536	0.222194791	106258.0703
0.642437627	10.47587681	0.254322887	106263.8438
0.642495474	10.55281162	0.241156325	106264.7422
0.642553285	10.37806129	0.271224767	106262.6328
0.642611196	9.962280273	0.345134318	106249.6094
0.642669018	9.329911232	0.464232683	106254.5234
0.642726975	8.927057266	0.544543088	106260.0781
0.642784856	8.652705193	0.601310432	106258.0391
0.642842668	8.488835335	0.636044025	106269.6406
0.642900584	8.468335152	0.64043349	106263.6094
0.642958468	8.871350288	0.555931449	106277.0234
0.64301625	9.117663384	0.506101251	106279.3984
0.643074219	8.96500206	0.536825895	106291.8438
0.643132071	8.604719162	0.611416757	106303.6484
0.643189933	8.375823975	0.660365462	106300.25
0.64324772	8.276498795	0.68199265	106308.75
0.6433057	8.179935455	0.703246296	106323.0781
0.643363475	8.179488182	0.703345299	106322.5859
0.643421391	8.211372376	0.696302056	106327.5156
0.643479272	8.062608719	0.72937578	106339.4375
0.643537147	7.456168652	0.869947076	106358.0156
0.643595056	6.967945576	0.990134835	106365.9297
0.643652908	6.740121365	1.048467755	106356.1016
0.643710788	6.693796158	1.060508966	106353.6719
0.643768604	6.598202705	1.085551381	106364.125
0.643826521	6.616624832	1.080704808	106376.8203
0.643884398	6.608859062	1.082746625	106376.4453
0.643942271	6.461718559	1.121765494	106388.2969
0.644000089	6.300195694	1.165332198	106405.6641
0.644057968	6.247099876	1.179823399	106398.2578
0.644115858	6.04730463	1.235117793	106417.5078
0.644173809	6.040880203	1.236916065	106396.3984
0.64423167	5.957912445	1.260254026	106415.3594
0.644289547	5.790942192	1.307871938	106427.3359
0.644347329	5.823381424	1.298552036	106439.9922
0.644405245	5.645248413	1.350142956	106431.1719
0.644463166	5.602680206	1.362622023	106449.6563
0.644521057	5.444266796	1.4095788	106456.7813
0.644578884	5.315944195	1.44822073	106449.5859
0.644636767	5.179911137	1.489784956	106448.6484
0.644694696	5.126754761	1.506196499	106473.7031
0.644752467	5.071630001	1.523317337	106466.0313
0.644810337	5.014077187	1.541303635	106464.0859
0.644868264	4.921971321	1.570326328	106477.7109
0.644926141	4.894162655	1.579146862	106503.25
0.644983986	4.773044109	1.617880464	106509.4453
0.645041874	4.662408352	1.653715849	106492.7344
0.645099696	4.529607773	1.697310686	106503.4375
0.645157645	4.417593002	1.734580636	106501.0156
0.645215558	4.387993336	1.744506121	106521.1563
0.645273335	4.320815563	1.767152906	106521.5859
0.645331304	4.227416992	1.798918724	106530.3047
0.645389175	4.202651024	1.80739677	106524.7578
0.645447068	4.156511307	1.823253393	106538.3906
0.645504858	4.038448334	1.864196062	106556.7813
0.645562712	3.920300245	1.90570426	106537.8984
0.645620581	3.868281603	1.92415154	106543.1172
0.645678566	3.756100178	1.964295387	106558.6719
0.645736352	3.756435156	1.964174748	106543.4609
0.645794322	3.618668556	2.014155388	106570.5
0.645852161	3.401058674	2.094662666	106578.7188
0.645909953	3.428848505	2.084273815	106583.0938
0.645967842	3.450399876	2.076238871	106588.8672
0.646025762	3.405661345	2.092939854	106590.4375
0.646083651	3.308537722	2.129480362	106582.1172
0.646141479	3.106971026	2.206573248	106596.0547
0.646199354	3.149778128	2.190057516	106604.8828
0.646257222	3.09769845	2.210160971	106595.2969
0.646315185	3.048622847	2.229210615	106619.3828
0.646372977	2.935199261	2.273633719	106608.4297
0.646430854	2.96164608	2.263226032	106605.1016
0.646488814	2.869582892	2.29958725	106617.4141
0.64654659	2.814336062	2.32158494	106621.9297
0.646604529	2.690226078	2.371492624	106618.2813
0.646662427	2.628083468	2.396739006	106638.5703
0.646720269	2.605792284	2.405837297	106634.1797
0.64677817	2.553932667	2.427090645	106633.0703
0.646836049	2.521854878	2.440297842	106641.2266
0.646893832	2.465614557	2.463566065	106638.0391
0.646951759	2.412023306	2.485872746	106666.5625
0.647009692	2.351917267	2.511048079	106645.5391
0.647067532	2.275972128	2.543096781	106646.1797
0.647125353	2.16928196	2.588574648	106648.4766
0.647183201	2.145864487	2.598628283	106645.9453
0.647241181	2.13552165	2.603076935	106657.5
0.647299022	2.046963453	2.641375542	106646.9844
0.647356858	1.999421954	2.662090302	106657.0781
0.647414738	1.924648762	2.694890499	106666.2656
0.647472644	1.932949305	2.691236019	106665.5781
0.6475305	1.821166754	2.740731716	106681.2578
0.647588378	1.827566862	2.737881422	106685.2656
0.647646191	1.778078079	2.759974003	106684.3672
0.647704058	1.72821641	2.78235507	106666.9688
0.647762002	1.708719254	2.79114008	106684.2266
0.647819885	1.588369846	2.845786333	106678.5156
0.647877693	1.564410806	2.856751919	106670.1719
0.647935607	1.502870083	2.885050774	106688.9297
0.647993505	1.491696477	2.890209436	106688.3281
0.648051304	1.417155266	2.924786568	106692.1875
0.648109265	1.358050942	2.952405453	106704.0625
0.648167139	1.37276113	2.945514679	106685.7813
0.648225001	1.315646648	2.972331524	106704.7422
0.64828284	1.284264803	2.987138033	106705.8359
0.648340671	1.262444019	2.997463703	106708.7656
0.648398515	1.214965582	3.020016432	106709.8984
0.648456508	1.142742515	3.054549933	106716.2969
0.648514301	1.083117127	3.08326745	106717.9219
0.648572155	1.070845604	3.089201212	106715.125
0.648630048	1.04855454	3.100000382	106708.0938
0.648687884	0.988078475	3.12943244	106715.6094
0.648745799	0.946333408	3.149863243	106712.9922
0.648803633	0.957744777	3.14426899	106716.3672
0.648861591	0.923689365	3.160984993	106726.1484
0.648919355	0.885457993	3.179825544	106724.5781
0.648977264	0.853314638	3.195727348	106713.9141
0.649035128	0.781935155	3.231241703	106727.7422
0.649093012	0.782503188	3.230957985	106715.9688
0.649150941	0.752606213	3.245915175	106705.4766
0.649208777	0.713599801	3.265503883	106723.2656
0.649266649	0.713722527	3.265442133	106730.8594
0.649324573	0.67194581	3.286515236	106725.5625
0.649382341	0.642005622	3.301677465	106732.7422
0.649440269	0.588466704	3.328915358	106724.1406
0.649498119	0.542969763	3.352188349	106725.0078
0.649556044	0.516035259	3.366021156	106718.2188
0.649613917	0.502532423	3.372971296	106734.2578
