Day fraction since midnight on 	Photometer (mg/L)	Photometer (volts)	Source pressure (Pa)
0.615002866	0.157678515	3.554018974	104142.75
0.615014541	0.15773645	3.55398798	104142.75
0.615026113	0.157837153	3.553934097	104142.75
0.615037586	0.157746688	3.553982496	104142.75
0.615049281	0.157709703	3.554002285	104142.75
0.615060806	0.157744467	3.553983688	104142.75
0.615072363	0.157760948	3.553974867	104142.75
0.61508395	0.157808185	3.553949595	104142.75
0.615095508	0.157923162	3.553888083	104142.75
0.615107098	0.157748923	3.553981304	104142.75
0.615118661	0.157700792	3.554007053	104142.75
0.615130233	0.157715946	3.553998947	104142.75
0.615141808	0.157747582	3.553982019	104142.75
0.615153398	0.157779664	3.553964853	104142.75
0.615164962	0.157679409	3.554018498	104142.75
0.615176549	0.157719061	3.553997278	104142.75
0.615188145	0.15770258	3.5540061	104142.75
0.615199707	0.157667816	3.554024696	104142.75
0.615211288	0.157612115	3.554054499	104142.75
0.615222859	0.157651782	3.554033279	104142.75
0.615234466	0.15770793	3.554003239	104142.75
0.615246021	0.157680288	3.554018021	104142.75
0.615257604	0.157650888	3.554033756	104142.75
0.615269177	0.157677621	3.554019451	104142.75
0.615280744	0.157667816	3.554024696	104142.75
0.61529227	0.157705247	3.554004669	104142.75
0.615303836	0.157760069	3.553975344	104142.75
0.615315428	0.15765667	3.554030657	104142.75
0.615326993	0.157720402	3.553996563	104142.75
0.615338569	0.157726646	3.553993225	104142.75
0.615350141	0.157610774	3.554055214	104142.75
0.615361726	0.157648653	3.554034948	104142.75
0.615373285	0.157584935	3.554069042	104142.75
0.615384864	0.157586709	3.554068089	104142.75
0.615396435	0.157654896	3.554031611	104142.75
0.615408071	0.157639742	3.554039717	104142.75
0.615419535	0.157531455	3.554097652	104142.75
0.615431227	0.157681629	3.554017305	104142.75
0.615442792	0.157723069	3.553995132	104142.75
0.615454361	0.157633498	3.554043055	104142.75
0.615465953	0.157720849	3.553996325	104142.75
0.615477523	0.157761395	3.553974628	104142.75
0.615489082	0.15773645	3.55398798	104142.75
0.615500542	0.157767639	3.553971291	104142.75
0.615512249	0.157700792	3.554007053	104142.75
0.615523768	0.157642856	3.554038048	104142.75
0.615535342	0.157656238	3.554030895	104142.75
0.615546912	0.157694116	3.55401063	104142.75
0.615558494	0.157764524	3.55397296	104142.75
0.61557006	0.157652661	3.554032803	104142.75
0.61558161	0.15767093	3.554023027	104142.75
0.615593181	0.157654002	3.554032087	104142.75
0.615604751	0.157736883	3.553987742	104142.75
0.615616328	0.157637075	3.554041147	104142.75
0.615627907	0.157699451	3.554007769	104142.75
0.615639515	0.157648206	3.554035187	104142.75
0.61565107	0.157657117	3.554030418	104142.75
0.615662661	0.157650888	3.554033756	104142.75
0.615674231	0.157743573	3.553984165	104142.75
0.61568581	0.157688767	3.554013491	104142.75
0.615697383	0.15771015	3.554002047	104142.75
0.615708946	0.157751143	3.553980112	104142.75
0.61572053	0.157713264	3.554000378	104142.75
0.61573209	0.157715052	3.553999424	104142.75
0.615743666	0.157681629	3.554017305	104142.75
0.615755244	0.157663807	3.554026842	104142.75
0.61576681	0.157735109	3.553988695	104142.75
0.615778392	0.15768519	3.554015398	104142.75
0.615789959	0.157781005	3.553964138	104142.75
0.615801545	0.157681182	3.554017544	104142.75
0.615813069	0.157742232	3.55398488	104142.75
0.615824645	0.157733768	3.55398941	104142.75
0.615836325	0.157690987	3.554012299	104142.75
0.615847792	0.15781042	3.553948402	104142.75
0.615859477	0.157642856	3.554038048	104142.75
0.615871028	0.157662466	3.554027557	104142.75
0.615882602	0.15771015	3.554002047	104142.75
0.615894181	0.157760501	3.553975105	104142.75
0.615905759	0.157717735	3.553997994	104142.75
0.615917331	0.157826021	3.553940058	104142.75
0.615928916	0.157733768	3.55398941	104142.75
0.615940379	0.157774761	3.553967476	104142.75
0.615951947	0.157760501	3.553975105	104142.75
0.615963535	0.157679856	3.554018259	104142.75
0.615975096	0.157753825	3.553978682	104142.75
0.615986738	0.157626376	3.554046869	104142.75
0.615998328	0.157711044	3.55400157	104142.75
0.616009904	0.157660693	3.554028511	104142.75
0.616021469	0.157635734	3.554041863	104142.75
0.616033042	0.157697678	3.554008722	104142.75
0.616044563	0.157676727	3.554019928	104142.75
0.616056149	0.157677621	3.554019451	104142.75
0.616067717	0.157681629	3.554017305	104142.75
0.616079298	0.15776585	3.553972244	104142.75
0.616090868	0.157720402	3.553996563	104142.75
0.616102497	0.157745361	3.553983212	104142.75
0.616114083	0.157678068	3.554019213	104142.75
0.616125658	0.157696337	3.554009438	104142.75
0.616137234	0.157649547	3.554034472	104142.75
0.616148801	0.157632619	3.554043531	104142.75
0.616160398	0.157657117	3.554030418	104142.75
0.616171969	0.157620579	3.554049969	104142.75
0.616183536	0.157635734	3.554041863	104142.75
0.616195108	0.157659352	3.554029226	104142.75
0.616206581	0.15760988	3.554055691	104142.75
0.616218182	0.157522991	3.554102182	104142.75
0.616229742	0.157555968	3.554084539	104142.75
0.61624132	0.157666922	3.554025173	104142.75
0.616252899	0.157603204	3.554059267	104142.75
0.616264468	0.157648206	3.554035187	104142.75
0.616276101	0.157601863	3.554059982	104142.75
0.61628768	0.157575578	3.554074049	104142.75
0.616299245	0.157666922	3.554025173	104142.75
0.616310813	0.157652661	3.554032803	104142.75
0.616322384	0.157658011	3.554029942	104142.75
0.616333936	0.157608554	3.554056406	104142.75
0.61634552	0.15762727	3.554046392	104142.75
0.616357074	0.157593846	3.554064274	104142.75
0.616368661	0.15764153	3.554038763	104142.75
0.616380245	0.15764153	3.554038763	104142.75
0.616391787	0.15754883	3.554088354	104142.75
0.616403357	0.157666475	3.554025412	104142.75
0.616414947	0.157502055	3.554113388	104142.75
0.616426508	0.157491356	3.55411911	104142.75
0.616438089	0.157490909	3.554119349	104142.75
0.61644973	0.157453477	3.554139376	104142.75
0.616461298	0.157518983	3.554104328	104142.75
0.616472863	0.157612115	3.554054499	104142.75
0.61648445	0.157517195	3.554105282	104142.75
0.616496022	0.157598302	3.55406189	104142.75
0.616507521	0.157542601	3.554091692	104142.75
0.616519089	0.15762414	3.554048061	104142.75
0.616530659	0.157639742	3.554039717	104142.75
0.616542249	0.157602757	3.554059506	104142.75
0.616553865	0.157614783	3.554053068	104142.75
0.616565438	0.157601416	3.554060221	104142.75
0.616577022	0.157641977	3.554038525	104142.75
0.616588595	0.157626823	3.554046631	104142.75
0.616600165	0.15764688	3.554035902	104142.75
0.616611745	0.157525659	3.554100752	104142.75
0.616623371	0.157449022	3.55414176	104142.75
0.616634838	0.157493129	3.554118156	104142.75
0.616646408	0.157539919	3.554093123	104142.75
0.616657988	0.157552853	3.554086208	104142.75
0.616669549	0.157502055	3.554113388	104142.75
0.616681218	0.157534584	3.554095984	104142.75
0.616692798	0.1575827	3.554070234	104142.75
0.616704384	0.157554179	3.554085493	104142.75
0.616715844	0.157603204	3.554059267	104142.75
0.616727524	0.157641977	3.554038525	104142.75
0.616739051	0.157654002	3.554032087	104142.75
0.616750639	0.157624587	3.554047823	104142.75
0.616762215	0.157616571	3.554052115	104142.75
0.616773784	0.157567546	3.554078341	104142.75
0.616785361	0.157584041	3.554069519	104142.75
0.616796972	0.157561317	3.554081678	104142.75
0.616808538	0.157552853	3.554086208	104142.75
0.616820112	0.157626376	3.554046869	104142.75
0.616831696	0.157562658	3.554080963	104142.75
0.616843268	0.157613009	3.554054022	104142.75
0.616854835	0.157602757	3.554059506	104142.75
0.616866408	0.157522097	3.554102659	104142.75
0.616877988	0.157490909	3.554119349	104142.75
0.616889561	0.157440558	3.55414629	104142.75
0.616901124	0.157559529	3.554082632	104142.75
0.616912681	0.157563984	3.554080248	104142.75
0.616924261	0.157570228	3.55407691	104142.75
0.616935827	0.157506511	3.554111004	104142.75
0.616947405	0.157542601	3.554091692	104142.75
0.616958972	0.15751943	3.55410409	104142.75
0.616970542	0.157694116	3.55401063	104142.75
0.616982111	0.157635734	3.554041863	104142.75
0.616993693	0.157587156	3.55406785	104142.75
0.61700526	0.157654896	3.554031611	104142.75
0.617016833	0.15760009	3.554060936	104142.75
0.617028446	0.157491803	3.554118872	104142.75
0.617040017	0.157585383	3.554068804	104142.75
0.617051573	0.157638401	3.554040432	104142.75
0.617063167	0.157459274	3.554136276	104142.75
0.617074741	0.157581374	3.55407095	104142.75
0.617086271	0.157539472	3.554093361	104142.75
0.617097846	0.157579586	3.554071903	104142.75
0.617109421	0.157522544	3.554102421	104142.75
0.617121001	0.157603204	3.554059267	104142.75
0.617132573	0.157581374	3.55407095	104142.75
0.617144178	0.157476202	3.554127216	104142.75
0.61715574	0.157426745	3.554153681	104142.75
0.617167324	0.157522991	3.554102182	104142.75
0.617178905	0.157527	3.554100037	104142.75
0.617190483	0.157507837	3.554110289	104142.75
0.617201992	0.157592952	3.554064751	104142.75
0.617213588	0.157576904	3.554073334	104142.75
0.617225139	0.157562658	3.554080963	104142.75
0.617236714	0.157485113	3.554122448	104142.75
0.617248291	0.157593846	3.554064274	104142.75
0.617259931	0.157474861	3.554127932	104142.75
0.617271404	0.157541707	3.554092169	104142.75
0.617283081	0.157493576	3.554117918	104142.75
0.617294657	0.157539472	3.554093361	104142.75
0.617306229	0.157510519	3.554108858	104142.75
0.617317749	0.157433868	3.554149866	104142.75
0.617329323	0.1575533	3.55408597	104142.75
0.617340885	0.157626376	3.554046869	104142.75
0.617352454	0.157533243	3.554096699	104142.75
0.617364041	0.15765667	3.554030657	104142.75
0.617375587	0.157620132	3.554050207	104142.75
0.617387272	0.157511413	3.554108381	104142.75
0.617398734	0.157544822	3.5540905	104142.75
0.617410298	0.157567993	3.554078102	104142.75
0.61742188	0.157571569	3.554076195	104142.75
0.617433515	0.1575533	3.55408597	104142.75
0.617445071	0.157477543	3.554126501	104142.75
0.617456663	0.157567993	3.554078102	104142.75
0.617468227	0.157512739	3.554107666	104142.75
0.617479807	0.157600969	3.554060459	104142.75
start			
0.617491346	0.157595187	3.554063559	104142.75
0.61750294	0.157639742	3.554039717	104142.75
0.617514494	0.157598302	3.55406189	104142.75
0.617526083	0.157612562	3.55405426	104142.75
0.617537641	0.157546163	3.554089785	104142.75
0.617549298	0.157606319	3.554057598	104142.75
0.617560777	0.158024326	3.553833962	104142.75
0.617572456	0.159787446	3.552890778	104142.75
0.617583913	0.167024002	3.549021483	104142.75
0.617595596	0.178252548	3.543023825	104142.75
0.617607097	0.190617934	3.536427498	104142.75
0.61761866	0.212680236	3.524680615	104142.75
0.617630246	0.204600468	3.528979302	104142.75
0.617641809	0.211801991	3.525147677	104142.75
0.617653385	0.26761955	3.495552301	104142.75
0.617664984	0.321886599	3.466952801	104142.75
0.617676566	0.262948811	3.498021841	104142.75
0.617688143	0.28425765	3.486765623	104142.75
0.617699712	0.308279336	3.474107981	104142.75
0.617711289	0.422955632	3.414141178	104142.75
0.617722897	0.579505801	3.333489895	104142.75
0.617734487	0.679384589	3.282755852	104142.75
0.61774604	0.579041362	3.333727121	104142.75
0.617757619	0.819438696	3.212547302	104142.75
0.617769201	1.160562396	3.046003819	104142.75
0.61778072	1.44666791	2.911062717	104142.75
0.617792285	1.372260928	2.945748806	104142.75
0.617803863	1.577823639	2.850609541	104142.75
0.617815443	2.245909691	2.555857182	104142.75
0.617827009	3.093793392	2.211673021	104142.75
0.617838647	3.205809593	2.168556929	104142.75
0.617850213	3.192877531	2.173507452	104142.75
0.617861778	3.746429205	1.967779398	104142.75
0.617873357	3.902678728	1.911941528	104142.75
0.617884929	3.433820486	2.082418442	104142.75
0.617896515	3.115668535	2.203211308	104142.75
0.617908099	3.549875021	2.039398193	104142.75
0.617919682	4.276498795	1.78218472	104142.75
0.617931136	3.966696501	1.889339805	104142.75
0.61794282	3.587454796	2.025585175	104142.75
0.617954298	4.090873241	1.845950127	104142.75
0.617965858	4.589376926	1.677611232	104142.75
0.617977556	4.848110199	1.593813658	104142.75
0.617989017	4.551196098	1.690180421	104142.75
0.618000701	5.53259325	1.383296251	0
0.618012156	6.201640606	1.192297816	0
0.618023785	6.195604324	1.193958998	0
0.618035349	6.387944222	1.141568184	0
0.618046929	6.766411305	1.041661382	0
0.618058501	6.295149803	1.166705728	104142.75
0.6180701	6.265516281	1.174787402	104142.75
0.618081663	6.731145382	1.050796032	104142.75
0.618093254	7.549538612	0.847688377	104142.75
0.618104819	7.57955122	0.840582132	104142.75
0.618116392	7.516442776	0.855552077	104142.75
0.618127982	7.373229027	0.88991195	104142.75
0.618139561	7.469529629	0.866747916	104142.75
0.618151123	7.12549305	0.950642765	104142.75
0.618162712	7.114584446	0.953355193	104142.75
0.618174289	7.7652812	0.797123551	104142.75
0.618185769	8.343482018	0.667381644	104142.75
0.618197454	8.702467918	0.590886116	104142.75
0.618208915	8.772701263	0.576270461	104142.75
0.618220493	9.357131958	0.458933532	104142.75
0.618232175	9.504639626	0.430491924	104142.75
0.618243713	9.595327377	0.413233876	104142.75
0.618255278	9.961421967	0.345290393	104142.75
0.618266855	9.816983223	0.371770382	104142.75
0.618278433	9.206702232	0.488418102	104142.75
0.618290014	9.116060257	0.506421208	104142.75
0.618301583	9.916817665	0.35342291	104142.75
0.618313158	11.05279064	0.158254102	104142.75
0.618324731	11.07555676	0.154586807	104142.75
0.618336308	11.2682724	0.12390773	104142.75
0.618347884	11.13731766	0.144683883	104142.75
0.618359447	11.13017368	0.145825848	104142.75
0.618371019	11.00342846	0.166237414	104142.75
0.618382597	11.34224701	0.112303175	104142.75
0.618394175	11.57985973	0.075661138	104142.75
0.618398445	11.59922695	0.072716631	104142.75
0.618417329	11.61017418	0.071055003	104142.75
0.618428922	11.88145542	0.030511443	104142.75
0.618440494	12.04687309	0.00637698	104142.75
0.618452066	12.15757847	-0.009531222	104142.75
0.618463629	12.39919853	-0.043585844	104142.75
0.61847513	12.91476345	-0.113292731	104142.75
0.618486714	13.32834721	-0.166421458	104142.75
0.618498283	13.44019604	-0.180378825	104142.75
0.618509858	13.75841999	-0.219162509	104142.75
0.618521443	14.03578663	-0.251876175	104142.75
0.618532989	13.89604855	-0.235519737	104142.75
0.618544578	14.15330505	-0.265438378	104142.75
0.61855615	14.31209278	-0.283486903	104142.75
0.618567835	14.36513615	-0.289446116	104142.75
0.618579303	14.76712418	-0.333494425	104142.75
0.61859087	14.79946423	-0.336954147	104142.75
0.618602451	14.91744041	-0.349471301	104142.75
0.618614034	14.67814064	-0.32391113	104142.75
0.618625591	14.53026485	-0.307776362	104142.75
0.618637162	14.46645164	-0.300732195	104142.75
0.618648796	14.66197681	-0.322160244	104142.75
0.618660381	14.7177887	-0.328192681	104142.75
0.618671953	14.90798092	-0.348473638	104142.75
0.618683528	14.6437521	-0.320182473	104142.75
0.6186951	15.1289959	-0.371514142	104142.75
0.618706693	15.31255054	-0.390227944	104142.75
0.618718272	15.85844994	-0.443701088	104142.75
0.618729862	16.12737083	-0.468885064	104142.75
0.618741433	16.28710747	-0.483495086	104142.75
0.618753	16.33508873	-0.487833619	104142.75
0.618764582	16.45726585	-0.498778313	104142.75
0.618776158	16.88811874	-0.536220491	104142.75
0.618787721	17.04988098	-0.549825847	104142.75
0.618799288	16.85603333	-0.533492982	104142.75
0.618810875	16.66270638	-0.516853035	104142.75
0.618822453	17.11042404	-0.554856002	104142.75
0.618834044	17.46881104	-0.583955467	104142.75
0.618845608	17.49236298	-0.585827828	104142.75
0.618857178	17.42692947	-0.580613852	104142.75
0.618868753	17.6866436	-0.601089716	104142.75
0.618880322	17.71308517	-0.603141785	104142.75
0.618891917	17.85014343	-0.613683224	104142.75
0.618903373	17.68525124	-0.600981593	104142.75
0.61891506	17.57072258	-0.592022836	104142.75
0.618926619	17.66778946	-0.599622905	104142.75
0.618938118	17.56711197	-0.591738462	104142.75
0.618949693	17.6382637	-0.597319663	104142.75
0.618961265	18.02175522	-0.62665993	104142.75
0.618972837	18.12335777	-0.634228051	104142.75
0.618984416	18.05868149	-0.629420161	104142.75
0.61899606	17.8546524	-0.614027321	104142.75
0.619007631	18.03383827	-0.627564311	104142.75
0.619019216	18.49852562	-0.661451519	104142.75
0.619030781	18.33551025	-0.649760544	104142.75
0.619042365	18.30248833	-0.647366643	104142.75
0.619053918	18.54001617	-0.664393723	104142.75
0.619065483	18.81058121	-0.68325448	104142.75
0.619077046	18.56538582	-0.666186154	104142.75
0.619088622	18.30102921	-0.647260666	104142.75
0.619100212	18.25256538	-0.643730938	104142.75
0.619111702	18.70964432	-0.676283836	104142.75
0.619123388	18.97413826	-0.694386482	104142.75
0.619134956	19.25076103	-0.712763786	104142.75
0.619146436	19.37393379	-0.720768333	104142.75
0.619158006	19.35503578	-0.719547212	104142.75
0.619169573	19.42119789	-0.723811209	104142.75
0.619181275	19.04837036	-0.699373007	104142.75
0.619192843	19.01641274	-0.697231233	104142.75
0.6192044	19.54248619	-0.731547654	104142.75
0.619215988	19.59412575	-0.734810352	104142.75
0.619227441	19.46733475	-0.726766288	104142.75
0.619239118	19.5311203	-0.730827093	104142.75
0.619250696	19.4333992	-0.724594176	104142.75
0.619262282	19.42707825	-0.724188626	104142.75
0.619273847	19.55585289	-0.73239392	104142.75
0.619285419	19.62669563	-0.736858606	104142.75
0.61929699	19.65992165	-0.738940656	104142.75
0.619308576	19.67569351	-0.739926279	104142.75
0.619320138	19.74696922	-0.744359255	104142.75
0.619331717	19.87853813	-0.752451301	104142.75
0.619343239	19.91769409	-0.754837036	104142.75
0.619354826	19.78224182	-0.746540189	104142.75
0.619366398	19.85125923	-0.750783086	104142.75
0.619377971	19.93328667	-0.755784214	104142.75
0.619389543	20.1143074	-0.76666224	104142.75
0.619401138	20.1672554	-0.769803286	104142.75
0.619412704	19.92645454	-0.755369365	104142.75
0.619424278	20.01799011	-0.760901332	104142.75
0.619435855	20.07774735	-0.764482677	104142.75
0.619447446	20.04003906	-0.762225449	104142.75
0.619459022	20.09380722	-0.765441239	104142.75
0.619470592	20.32530594	-0.779071331	104142.75
0.619482158	20.37852478	-0.782155871	104142.75
0.619493742	20.30210114	-0.77772063	104142.75
0.619505253	20.23183441	-0.773609638	104142.75
0.6195169	20.33159637	-0.779436827	104142.75
0.619528478	20.40420723	-0.78363806	104142.75
0.619540067	20.41147995	-0.784056962	104142.75
0.619551521	20.38793755	-0.782699585	104142.75
0.619563203	20.42995453	-0.785119653	104142.75
0.619574759	20.44444084	-0.785951436	104142.75
0.619586311	20.37244415	-0.781804383	104142.75
0.619597895	20.40485573	-0.783675373	104142.75
0.619609471	20.36589623	-0.781425536	104142.75
0.619621051	20.41835403	-0.784452617	104142.75
0.619632635	20.36043549	-0.781109452	104142.75
0.619644221	20.38377953	-0.782459438	104142.75
0.619655793	20.51712036	-0.790104687	104142.75
0.619667357	20.51006126	-0.789702773	104142.75
0.61967893	20.5270977	-0.790672243	104142.75
0.619690513	20.51152992	-0.789786458	104142.75
0.619702077	20.57868195	-0.793596745	104142.75
0.619713659	20.60291862	-0.794965088	104142.75
0.619725233	20.56698418	-0.792934954	104142.75
0.619736813	20.55463982	-0.792235732	104142.75
0.619748391	20.61765862	-0.795795441	104142.75
0.619759959	20.63311005	-0.796664417	104142.75
0.619771428	20.6280632	-0.796380818	104142.75
0.619783111	20.61970901	-0.795910835	104142.75
0.619794687	20.66251564	-0.798314154	104142.75
0.619806212	20.61926842	-0.79588604	104142.75
0.619817781	20.6072197	-0.795207501	104142.75
0.619829353	20.62049103	-0.795954824	104142.75
0.619840933	20.60694695	-0.795192063	104142.75
0.619852504	20.59518814	-0.794528961	104142.75
0.61986414	20.61245346	-0.795502365	104142.75
0.619875718	20.62921333	-0.796445429	104142.75
0.619887188	20.59480095	-0.794507146	104142.75
0.619898759	20.58793068	-0.794119299	104142.75
0.61991044	20.58836937	-0.794144034	104142.75
0.619921977	20.58778763	-0.794111252	104142.75
0.619933551	20.5881958	-0.794134259	104142.75
0.619945116	20.59768867	-0.794670045	104142.75
0.619956686	20.59303093	-0.794407249	104142.75
0.619968264	20.57650566	-0.793473721	104142.75
0.619979786	20.57152367	-0.79319191	104142.75
0.619991377	20.55762482	-0.79240495	104142.75
0.620002939	20.52565575	-0.790590227	104142.75
0.620014504	20.52783394	-0.790714085	104142.75
0.620026085	20.52417183	-0.790505946	104142.75
0.620037738	20.50759125	-0.789562047	104142.75
0.620049326	20.48052406	-0.788017631	104142.75
0.620060895	20.47401428	-0.7876454	104142.75
0.620072476	20.47587967	-0.787752152	104142.75
0.620084038	20.46121979	-0.786913276	104142.75
0.620095506	20.47868538	-0.787912548	104142.75
0.620107079	20.46043205	-0.786868095	104142.75
0.620118761	20.41709328	-0.784380078	104142.75
0.620130335	20.37398529	-0.781893432	104142.75
0.620141903	20.30028534	-0.777614832	104142.75
0.620153486	20.32445717	-0.779021978	104142.75
0.620165064	20.32073402	-0.778805494	104142.75
0.620176637	20.27100182	-0.775905132	104142.75
0.620188221	20.20542908	-0.772056639	104142.75
0.620199675	20.15687752	-0.769189179	104142.75
0.620211305	20.22875786	-0.773428917	104142.75
0.620222894	20.28565598	-0.776761353	104142.75
0.62023447	20.24807167	-0.774562478	104142.75
0.620246032	20.22423553	-0.773163199	104142.75
0.62025762	20.24672699	-0.774483681	104142.75
0.620269227	20.24761009	-0.774535418	104142.75
0.620280818	20.15646553	-0.769164741	104142.75
0.620292273	20.0493679	-0.762784779	104142.75
0.620303843	20.00948334	-0.760389566	104142.75
0.620315539	20.05559158	-0.763157606	104142.75
0.620326997	20.01824379	-0.760916591	104142.75
0.620338668	19.99421883	-0.759470046	104142.75
0.620350261	20.01892853	-0.760957718	104142.75
0.620361818	20.00165176	-0.759917975	104142.75
0.620373272	20.02485466	-0.761313856	104142.75
0.620384921	20.01525307	-0.760736644	104142.75
0.620396494	20.0009861	-0.75987792	104142.75
0.620408089	19.94708061	-0.756620824	104142.75
0.62041966	19.89359856	-0.753370106	104142.75
0.620431224	19.8049469	-0.747939527	104142.75
0.620442811	19.71567154	-0.742416918	104142.75
0.620454384	19.62535477	-0.736774445	104142.75
0.620465953	19.66287804	-0.73912555	104142.75
0.620477517	19.63610268	-0.737448871	104142.75
0.620489086	19.59554672	-0.734899879	104142.75
0.620500709	19.50309563	-0.729046464	104142.75
0.620512175	19.41612434	-0.723485291	104142.75
0.62052375	19.50907326	-0.729426742	104142.75
0.620535449	19.52465439	-0.730416775	104142.75
0.620546907	19.39641953	-0.722217977	104142.75
0.620558547	19.36937523	-0.720474005	104142.75
0.620570111	19.33890533	-0.718502998	104142.75
0.620581692	19.31424713	-0.716903091	104142.75
0.620593268	19.33325958	-0.718137085	104142.75
0.620604828	19.25791168	-0.713231385	104142.75
0.620616425	19.33711624	-0.718387008	104142.75
0.620627983	19.24538803	-0.712412059	104142.75
0.620639554	19.20734406	-0.709916294	104142.75
0.620651143	19.16193008	-0.706923127	104142.75
0.620662725	19.09872627	-0.702732682	104142.75
0.620674327	18.91988754	-0.690716267	104142.75
0.620685887	18.93122292	-0.691484928	104142.75
0.620697465	18.97301483	-0.694310606	104142.75
0.620709036	18.87445641	-0.687625825	104142.75
0.62072061	18.9401474	-0.692089498	104142.75
0.620732144	18.84282684	-0.685465038	104142.75
0.620743712	18.93829918	-0.691964328	104142.75
0.620755283	19.03154564	-0.698246479	104142.75
0.620766861	18.91758156	-0.690559685	104142.75
0.620778432	18.85266876	-0.686138153	104142.75
0.620790049	18.82013893	-0.683910549	104142.75
0.620801618	18.86128235	-0.686726689	104142.75
0.6208132	18.83474731	-0.684911847	104142.75
0.620824768	18.8213253	-0.683991969	104142.75
0.620836356	18.6642952	-0.673126817	104142.75
0.620847919	18.70370674	-0.675871432	104142.75
0.620859505	18.716465	-0.676757336	104142.75
0.620871067	18.72155571	-0.677110493	104142.75
0.620882649	18.62927246	-0.670677841	104142.75
0.620894226	18.64241409	-0.671597898	104142.75
0.620905712	18.61877823	-0.669942141	104142.75
0.620917276	18.52903366	-0.66361624	104142.75
0.62092887	18.37902069	-0.65290153	104142.75
0.620940544	18.18437767	-0.638732672	104142.75
0.620952013	18.11074066	-0.633292794	104142.75
0.620963676	18.1747551	-0.63802433	104142.75
0.620975245	18.24316216	-0.643043876	104142.75
0.620986803	18.10364342	-0.632766128	104142.75
0.620998382	18.00469208	-0.625380576	104142.75
0.621009954	17.99804306	-0.624881387	104142.75
0.621021542	18.0667038	-0.630018354	104142.75
0.621033119	17.9950695	-0.624657989	104142.75
0.621044687	17.99806786	-0.624883294	104142.75
0.621056253	17.88102722	-0.616036594	104142.75
0.621067837	17.86626053	-0.614912391	104142.75
0.621079416	17.88307571	-0.616192401	104142.75
0.621090979	17.79755974	-0.609657645	104142.75
0.621102568	17.64680862	-0.597987056	104142.75
0.621114134	17.59057045	-0.593583405	104142.75
0.621125713	17.44583321	-0.582123995	104142.75
0.621137295	17.36937141	-0.575996161	104142.75
0.621148862	17.45763016	-0.583064854	104142.75
0.621160427	17.42929459	-0.580802977	104142.75
0.621172	17.22877693	-0.564592898	104142.75
0.621183573	17.35172844	-0.574574769	104142.75
0.621195168	17.34534645	-0.574059963	104142.75
0.621206728	17.32133293	-0.572119772	104142.75
0.621218303	17.2873497	-0.569365025	104142.75
0.621229882	17.21094322	-0.563133895	104142.75
0.621241452	17.29101372	-0.569662631	104142.75
0.621253024	17.23150253	-0.5648157	104142.75
0.621264616	17.1240139	-0.555980504	104142.75
0.62127617	17.18666077	-0.561142623	104142.75
0.621287758	17.26315117	-0.567397296	104142.75
0.621299322	17.19288254	-0.561653316	104142.75
0.621310886	17.11665916	-0.555372119	104142.75
0.621322447	16.93439674	-0.540137529	104142.75
0.621334034	16.8129921	-0.529818893	104142.75
0.621345595	16.79608727	-0.528371096	104142.75
0.621357173	16.81145668	-0.529687524	104142.75
0.621368775	16.92367554	-0.539231837	104142.75
0.621380342	16.7714901	-0.52625978	104142.75
0.621391913	16.63644409	-0.51456517	104142.75
0.621403498	16.4733963	-0.500212312	104142.75
0.621415059	16.56547165	-0.50834918	104142.75
0.621426586	16.66727638	-0.517250478	104142.75
0.621438145	16.570755	-0.508813679	104142.75
0.621449725	16.67914581	-0.518281877	104142.75
0.621461305	16.52669716	-0.504932582	104142.75
0.621472867	16.3742733	-0.49135986	104142.75
0.621484484	16.50000191	-0.502572	104142.75
0.621496037	16.336586	-0.487968534	104142.75
0.621507628	15.99954033	-0.457006842	104142.75
0.621519197	16.04514694	-0.461263895	104142.75
0.62153078	16.06993866	-0.463569105	104142.75
0.621542297	16.13237572	-0.469346702	104142.75
0.621553882	16.26258278	-0.481268525	104142.75
0.621565452	16.17586136	-0.473347306	104142.75
0.62157703	16.19239044	-0.474862844	104142.75
0.621588592	16.22054291	-0.477438003	104142.75
0.621600175	16.18058014	-0.473780185	104142.75
0.621611746	15.91230106	-0.448803991	104142.75
0.621623327	15.74965954	-0.433299333	104142.75
0.621634909	15.84789371	-0.442697167	104142.75
0.621646474	15.70336342	-0.428835005	104142.75
0.621658136	15.79536247	-0.437684298	104142.75
0.62166972	15.81540394	-0.43960017	104142.75
0.621681183	15.59942818	-0.418729127	104142.75
0.621692743	15.58015823	-0.416842699	104142.75
0.621704334	15.51189327	-0.410127729	104142.75
0.621715919	15.42508316	-0.401515394	104142.75
0.621727503	15.41128254	-0.400138676	104142.75
0.621739066	15.23145485	-0.382006705	104142.75
0.621750644	14.96505547	-0.354477346	104142.75
0.621762217	14.84159088	-0.341442406	104142.75
0.621773832	14.88207722	-0.345736325	104142.75
0.621785399	14.86382103	-0.343802422	104142.75
0.621796971	15.00675869	-0.358840346	104142.75
0.621808541	14.92806816	-0.350590974	104142.75
0.621820112	14.97070313	-0.355069399	104142.75
0.621831651	14.91065693	-0.348756015	104142.75
0.621843241	14.77117443	-0.333928376	104142.75
0.621854816	14.88060284	-0.34558031	104142.75
0.62186639	14.8180933	-0.338941515	104142.75
0.621877958	14.68325901	-0.324464977	104142.75
0.621889613	14.7054224	-0.326859325	104142.75
0.621901174	14.87992954	-0.345509052	104142.75
0.621912761	14.73364735	-0.329900056	104142.75
0.621924337	14.39842415	-0.293168128	104142.75
0.621935911	14.16429234	-0.266697466	104142.75
0.621947473	14.14180374	-0.26411885	104142.75
0.621959046	14.4405098	-0.297854304	104142.75
0.621970621	14.65257072	-0.321140021	104142.75
0.621982179	14.42000771	-0.295574188	104142.75
0.621993768	14.46655369	-0.300743461	104142.75
0.622005349	14.48561955	-0.302853286	104142.75
0.62201693	14.25829411	-0.27740714	104142.75
0.622028505	14.2892313	-0.28090772	104142.75
0.62204007	14.16423988	-0.266691476	104142.75
0.622051646	14.0008173	-0.247806594	104142.75
0.622063159	13.87179089	-0.232654646	104142.75
0.622074732	13.91040802	-0.237212122	104142.75
0.622086296	13.80347252	-0.224544302	104142.75
0.622097886	13.87134266	-0.232601613	104142.75
0.622109446	13.9577055	-0.242767707	104142.75
0.62212107	13.8365078	-0.228473648	104142.75
0.622132632	14.04449844	-0.252887577	104142.75
0.622144214	14.04091454	-0.252471596	104142.75
0.622155793	13.77728176	-0.221418887	104142.75
0.622167369	13.5220356	-0.190483168	104142.75
0.622178859	13.61017895	-0.201264501	104142.75
0.62219053	13.65483379	-0.206686631	104142.75
0.622202109	13.63198185	-0.203915253	104142.75
0.622213583	13.42096043	-0.17799069	104142.75
0.622225253	12.98916054	-0.123028942	104142.75
0.622236834	13.12887669	-0.141099379	104142.75
0.622248403	13.29781246	-0.162581146	104142.75
0.622259982	13.20937252	-0.151384994	104142.75
0.622271555	13.19664288	-0.149764448	104142.75
0.622283133	13.30277824	-0.163206503	104142.75
0.622294702	13.29753876	-0.16254659	104142.75
0.622306286	13.20584297	-0.150935933	104142.75
0.622317851	13.12175655	-0.140185162	104142.75
0.622329423	13.0555954	-0.131656036	104142.75
0.622341008	13.10062408	-0.137467653	104142.75
0.622352526	12.98196507	-0.122090809	104142.75
0.622364101	13.04409313	-0.130166918	104142.75
0.622375656	12.99359322	-0.123606496	104142.75
0.622387234	12.80639935	-0.098967873	104142.75
0.622398826	12.80777264	-0.099150524	104142.75
0.622410366	12.74946404	-0.091372713	104142.75
0.622421931	12.65215397	-0.078280948	104142.75
0.622433618	12.35533524	-0.037470758	104142.75
0.622445083	12.31021881	-0.031149991	104142.75
0.622456664	12.44300556	-0.049663752	104142.75
0.622468318	12.51527786	-0.059627168	104142.75
0.622479896	12.40277004	-0.044082467	104142.75
0.622491477	12.55156136	-0.064599268	104142.75
0.622503037	12.75120926	-0.091606222	104142.75
0.622514499	12.73668194	-0.089661032	104142.75
0.622526182	12.70086765	-0.084852263	104142.75
0.622537761	12.48353004	-0.055260152	104142.75
0.622549329	12.15313053	-0.008895737	104142.75
0.622560888	12.18524742	-0.013477054	104142.75
0.622572481	12.13372231	-0.006119517	104142.75
0.622584051	12.28368378	-0.027417805	104142.75
0.622595624	12.31176853	-0.031367678	104142.75
0.622607202	12.20090675	-0.01570485	104142.75
0.622618797	12.09324455	-0.000310187	104142.75
0.622630359	11.76251507	0.048138399	104142.75
0.622641834	11.96707535	0.017964594	104142.75
0.622653526	11.96303749	0.018553732	104142.75
0.622664979	11.82357979	0.039059706	104142.75
0.622676558	11.69822311	0.05776291	104142.75
0.622688126	11.6399889	0.066539608	104142.75
0.622699735	11.59089947	0.073981993	104142.75
0.622711299	11.64044571	0.066470653	104142.75
0.622722887	11.8170805	0.040023133	104142.75
0.622734449	11.76381493	0.047944557	104142.75
0.622746036	11.51995754	0.084808528	104142.75
0.6227576	11.39889812	0.103479907	104142.75
0.622769182	11.57250404	0.076781228	104142.75
0.622780747	11.4134407	0.10122373	104142.75
0.622792331	11.26494789	0.124431431	104142.75
0.622803898	11.33025265	0.114178285	104142.75
0.622815541	11.33158684	0.113969617	104142.75
0.622827106	11.35725307	0.10996069	104142.75
0.622838694	11.24303341	0.12788859	104142.75
0.622850259	11.17919636	0.138007149	104142.75
0.622861842	11.20739079	0.13352941	104142.75
0.622873361	11.09506989	0.151450723	104142.75
0.622884937	10.94254398	0.176144257	104142.75
0.622896496	10.94697475	0.175421044	104142.75
0.622908084	10.89448547	0.184011132	104142.75
0.622919644	10.77929688	0.203036889	104142.75
0.622931241	10.7833147	0.202369258	104142.75
0.622942807	10.67514992	0.220447823	104142.75
0.622954391	10.74630928	0.208530009	104142.75
0.622965976	10.9137249	0.180856705	104142.75
0.622977533	10.79094219	0.201102376	104142.75
0.622989115	10.58312416	0.235999197	104142.75
0.623000689	10.54872704	0.241852671	104142.75
0.623012245	10.58457661	0.235752523	104142.75
0.623023826	10.47596741	0.25430727	104142.75
0.62303541	10.41942501	0.264055163	104142.75
0.623046937	10.44063091	0.260392249	104142.75
0.623058507	10.46877098	0.255544692	104142.75
0.623070073	10.29006767	0.286585629	104142.75
0.623081647	10.01221657	0.336077899	104142.75
0.623093351	10.01357269	0.335832566	104142.75
0.623104875	9.834209442	0.368590057	104142.75
0.62311644	9.78364563	0.377942175	104142.75
0.623128026	9.935628891	0.349988252	104142.75
0.623139579	10.070467	0.325576335	104142.75
0.62315117	9.783368111	0.377993584	104142.75
0.623162676	9.862618446	0.363358438	104142.75
0.623174363	10.03128529	0.332632661	104142.75
0.623185944	10.08408833	0.32313025	104142.75
0.62319739	10.02529144	0.333714813	104142.75
0.623209072	9.875825882	0.360931933	104142.75
0.623220663	9.841492653	0.367247284	104142.75
0.623232131	9.717008591	0.390346706	104142.75
0.623243685	9.728039742	0.388286859	104142.75
0.623255274	9.891911507	0.357981205	104142.75
0.623266851	9.76112175	0.382124722	104142.75
0.623278507	9.859451294	0.363940835	104142.75
0.623290079	9.768218041	0.38080588	104142.75
0.62330166	9.610912323	0.410285384	104142.75
0.623313223	9.646307945	0.403607637	104142.75
0.623324805	9.443208695	0.44228062	104142.75
0.623336368	9.218047142	0.486177266	104142.75
0.623347928	9.25680542	0.47854346	104142.75
0.623359503	9.323389053	0.465504915	104142.75
0.623371071	9.266934395	0.476553828	104142.75
0.623382644	9.173055649	0.495079964	104142.75
0.62339422	9.089092255	0.51181221	104142.75
0.623405787	9.073602676	0.514916003	104142.75
0.623417352	9.224439621	0.484916091	104142.75
0.623428941	9.148059845	0.500044882	104142.75
0.623440512	9.163207054	0.49703449	104142.75
0.623452091	8.972741127	0.53525579	104142.75
0.623463664	8.852990151	0.559700072	104142.75
0.623475242	8.844698906	0.561404526	104142.75
0.623486809	8.796949387	0.571250677	104142.75
0.623498388	8.927426338	0.544467986	104142.75
0.623509973	8.999808312	0.529775322	104142.75
0.623521538	8.833302498	0.56374979	104142.75
0.623533116	8.777258873	0.575325906	104142.75
0.62354469	8.70814991	0.589699507	104142.75
0.623556267	8.709991455	0.589314997	104142.75
0.623567747	8.836215019	0.563150168	104142.75
0.62357934	8.806307793	0.569316804	104142.75
0.623591014	8.571922302	0.618354738	104142.75
0.623602589	8.672607422	0.597134471	104142.75
0.623614181	8.716331482	0.587992191	104142.75
0.623625674	8.735873222	0.5839203	104142.75
0.62363726	8.626079559	0.606911421	104142.75
0.623648828	8.560330391	0.620812893	104142.75
0.623660408	8.567119598	0.619372785	104142.75
0.623671976	8.312623978	0.674099207	104142.75
0.623683614	8.122501373	0.715995014	104142.75
0.623695084	8.148845673	0.710137308	104142.75
0.623706657	8.13757515	0.712641299	104142.75
0.623718335	7.897378445	0.766750574	104142.75
0.623729929	7.910593033	0.763736367	104142.75
0.623741374	7.849318981	0.777749777	104142.75
0.623753071	7.955276489	0.753576696	104142.75
0.623764646	8.082759857	0.724864006	104142.75
0.623776215	8.057329178	0.730559528	104142.75
0.623787782	7.998329639	0.743834913	104142.75
0.623799365	8.037895203	0.734922707	104142.75
0.623810822	8.148241043	0.710271657	104142.75
0.623822389	8.130814552	0.714144886	104142.75
0.623834094	7.925960064	0.76023674	104142.75
0.623845663	7.833630562	0.781352997	104142.75
0.623857197	7.831233501	0.781903982	104142.75
0.623868771	7.67458868	0.81823355	104142.75
0.623880347	7.504842281	0.85831517	104142.75
0.623891914	7.568077564	0.843296051	104142.75
0.623903497	7.609986305	0.833399713	104142.75
0.623915019	7.630773544	0.8285079	104142.75
0.623926592	7.710609913	0.809823871	104142.75
0.623938176	7.598532677	0.836099803	104142.75
0.623949746	7.457826138	0.86954993	104142.75
0.623961325	7.528715134	0.852632821	104142.75
0.623972884	7.482666493	0.863606989	104142.75
0.623984465	7.568910122	0.843098939	104142.75
0.623996027	7.389658928	0.885942578	104142.75
0.624007609	7.352472305	0.894937038	104142.75
0.624019183	7.318407059	0.903208911	104142.75
0.624030758	7.201956749	0.931721211	104142.75
0.62404234	7.155359745	0.943233132	104142.75
0.624053914	7.081473351	0.961608231	104142.75
0.624065481	7.108826637	0.954788208	104142.75
0.624077057	7.029672146	0.974580348	104142.75
0.624088703	6.913637161	1.003907681	104142.75
0.624100271	7.007096291	0.980256915	104142.75
0.624111848	7.00266552	0.981372774	104142.75
0.624123421	6.949930191	0.994694412	104142.75
0.624134978	6.961652279	0.991726577	104142.75
0.624146568	7.022690773	0.976334214	104142.75
0.624158155	6.893563271	1.009019375	104142.75
0.624169719	6.891304493	1.009595275	104142.75
0.624181296	6.920546532	1.002150774	104142.75
0.624192875	6.822212219	1.027280092	104142.75
0.62420441	6.850518227	1.020018578	104142.75
0.624215996	6.821110249	1.027563214	104142.75
0.62422756	6.945920467	0.995710492	104142.75
0.624239144	6.858499527	1.017975211	104142.75
0.624250698	6.683727264	1.063134313	104142.75
0.624262291	6.767145157	1.04147172	104142.75
0.624273867	6.778350353	1.038576961	104142.75
0.624285425	6.692622185	1.060814858	104142.75
0.624297011	6.58521986	1.088972807	104142.75
0.624308578	6.496932983	1.112369776	104142.75
0.624320208	6.458174229	1.122713208	104142.75
0.624331683	6.457625389	1.122860074	104142.75
0.624343244	6.414640427	1.134383798	104142.75
0.624354834	6.549649239	1.098372102	104142.75
0.624366394	6.429526329	1.130386829	104142.75
0.624378004	6.374057293	1.14531374	104142.75
0.624389563	6.315961838	1.161045432	104142.75
0.624401158	6.237144947	1.182549715	104142.75
0.624412712	6.332439899	1.156573176	104142.75
0.624424301	6.406195164	1.136654258	104142.75
0.624435832	6.243298054	1.180864215	104142.75
0.624447523	6.282133102	1.170252442	104142.75
0.624458986	6.365457058	1.147636294	104142.75
0.624470558	6.3268013	1.158102632	104142.75
0.624482138	6.205006123	1.191372156	104142.75
0.624493728	6.144413948	1.208090305	104142.75
0.624505314	6.176323414	1.199272275	104142.75
0.624516875	6.052122116	1.233770132	104142.75
0.624528457	5.947378635	1.26323235	104142.75
0.624540045	6.046288967	1.235401988	104142.75
0.624551615	6.115524292	1.216100693	104142.75
0.624563172	6.033329964	1.239030957	104142.75
0.624574753	6.02573061	1.241161585	104142.75
0.624586341	5.967427731	1.257566571	104142.75
0.624597903	5.783648968	1.309971809	104142.75
0.624609438	5.764938355	1.315366983	104142.75
0.624621124	5.799084663	1.305529475	104142.75
0.624632688	5.79899025	1.305556536	104142.75
0.624644261	5.817844868	1.300140262	104142.75
0.624655833	5.89620924	1.277749181	104142.75
0.624667327	5.793770313	1.307058096	104142.75
0.624678909	5.777997494	1.311600208	104142.75
0.624690472	5.824981213	1.2980932	104142.75
0.624702056	5.785861969	1.309334517	104142.75
0.624713634	5.701844692	1.333641768	104142.75
0.624725275	5.68907547	1.337355852	104142.75
0.624736854	5.656787872	1.346770167	104142.75
0.624748431	5.585989952	1.367530942	104142.75
0.624760004	5.544466972	1.379782438	104142.75
0.624771577	5.423572063	1.415773749	104142.75
0.624783155	5.453837395	1.406718612	104142.75
0.62479463	5.643577576	1.350631714	104142.75
0.624806299	5.413970947	1.418652654	104142.75
0.624817896	5.221119404	1.477128148	104142.75
0.624829466	5.246026516	1.469506025	104142.75
0.624840971	5.28427124	1.457842827	104142.75
0.624852533	5.371320725	1.431478143	104142.75
0.624864103	5.323862076	1.44582057	104142.75
0.624875677	5.30245924	1.452313304	104142.75
0.624887269	5.407060146	1.420726776	104142.75
0.624898899	5.365087509	1.433357716	104142.75
0.624910466	5.199212074	1.483849764	104142.75
0.624922042	5.146522999	1.500082016	104142.75
0.624933612	5.185919285	1.48793602	104142.75
0.624945181	5.204541206	1.48221314	104142.75
0.624956768	5.217487335	1.478241444	104142.75
0.624968237	5.212758541	1.479691505	104142.75
0.624979923	5.199170113	1.483862519	104142.75
0.624991486	5.100320339	1.514393568	104142.75
0.625003067	5.032449722	1.535549402	104142.75
0.625014647	4.828241348	1.600164414	104142.75
0.625026103	4.754268646	1.623931289	104142.75
0.62503779	4.84527874	1.59471786	104142.75
0.625049359	4.812655449	1.605155945	104142.75
0.625060931	4.901040554	1.576962829	104142.75
0.625072419	4.842229843	1.5956918	104142.75
0.625083992	4.697258949	1.642380476	104142.75
0.625095583	4.731943131	1.631142378	104142.75
0.625107139	4.78781414	1.613129377	104142.75
0.625118714	4.805860043	1.607334971	104142.75
0.625130276	4.840879917	1.596123099	104142.75
0.62514196	4.802234173	1.608498335	104142.75
0.625153527	4.681032658	1.647652745	104142.75
0.625165101	4.592183113	1.676689506	104142.75
0.625176679	4.544372082	1.692432404	104142.75
0.625188154	4.564824581	1.68568778	104142.75
0.625199738	4.508359432	1.704345226	104142.75
0.6252113	4.549752235	1.690656662	104142.75
0.625222883	4.704437733	1.640051007	104142.75
0.625234564	4.708997726	1.638572216	104142.75
0.625246033	4.577897072	1.681384802	104142.75
0.625257626	4.545773983	1.691969633	104142.75
0.625269199	4.446344852	1.724970341	104142.75
0.62528077	4.52368784	1.699268818	104142.75
0.625292332	4.553309917	1.689483047	104142.75
0.62530401	4.389518738	1.743993878	104142.75
0.625315464	4.341735363	1.760082603	104142.75
0.625327138	4.432305813	1.729659081	104142.75
0.625338711	4.279795647	1.781063914	104142.75
0.625350294	4.260316372	1.787691951	104142.75
0.625361767	4.337495804	1.761514187	104142.75
0.625373345	4.402319908	1.739698052	104142.75
0.625384917	4.189287186	1.811981201	104142.75
0.625396596	4.192336559	1.810934424	104142.75
0.625408182	4.083818436	1.848399282	104142.75
0.625419654	4.099633694	1.842911363	104142.75
0.625431245	4.155375958	1.823644519	104142.75
0.625442804	4.184507847	1.813622236	104142.75
0.62545439	4.074973106	1.851472855	104142.75
0.62546595	4.096085072	1.844141841	104142.75
0.625477536	4.098563194	1.84328258	104142.75
0.625489117	4.061426163	1.856185913	104142.75
0.625500669	4.034429073	1.865599275	104142.75
0.625512253	4.009261131	1.87440002	104142.75
0.625523825	3.902752161	1.911915541	104142.75
0.625535402	3.818095446	1.942049265	104142.75
0.625546964	3.881897211	1.919312835	104142.75
0.625558551	3.89369154	1.915127277	104142.75
0.625570122	3.936110735	1.900118351	104142.75
0.625581689	3.969230652	1.888448358	104142.75
0.625593342	3.976219416	1.885991216	104142.75
0.625604915	3.956621409	1.892886281	104142.75
0.625616491	3.945063353	1.896959662	104142.75
0.625628064	3.795539856	1.950125456	104142.75
0.625639618	3.760152817	1.962836504	104142.75
0.625651241	3.751891375	1.965811133	104142.75
0.625662811	3.745659828	1.968056679	104142.75
0.625674378	3.718539	1.977847695	104142.75
0.625685838	3.665077925	1.997233748	104142.75
0.625697525	3.703855991	1.983160734	104142.75
0.625708997	3.67553544	1.993432641	104142.75
0.625720561	3.614467859	2.01569128	104142.75
0.62573226	3.604831696	2.019217253	104142.75
0.625743718	3.694462299	1.986564279	104142.75
0.625755282	3.670079231	1.99541533	104142.75
0.625766885	3.653842926	2.001322269	104142.75
0.625778463	3.746708632	1.967678666	104142.75
0.625790034	3.717795134	1.978116632	104142.75
0.625801615	3.614641905	2.015627623	104142.75
0.625813177	3.464976072	2.070815325	104142.75
0.625824734	3.53125453	2.046263695	104142.75
0.625836306	3.521744251	2.0497756	104142.75
0.625847876	3.546219826	2.040744782	104142.75
0.625859459	3.579225779	2.028604984	104142.75
0.625871036	3.558781147	2.036119461	104142.75
0.625882676	3.513602257	2.052785158	104142.75
0.625894251	3.509741783	2.054213047	104142.75
0.625905834	3.602846384	2.019944191	104142.75
0.625917402	3.657479763	1.999998212	104142.75
0.625928982	3.5454247	2.041037798	104142.75
0.625940561	3.526437998	2.048041821	104142.75
0.625952137	3.549864769	2.039402008	104142.75
0.625963702	3.489951849	2.061542511	104142.75
0.625975289	3.411692143	2.090683699	104142.75
0.625986854	3.306224585	2.130355358	104142.75
0.625998436	3.397124767	2.096135855	104142.75
0.626010011	3.537087679	2.04411149	104142.75
0.626021589	3.493529081	2.060216427	104142.75
0.626033163	3.28142786	2.139749765	104142.75
0.626044733	3.211330652	2.166445494	104142.75
0.626056262	3.204494476	2.169059992	104142.75
0.626067834	3.277860165	2.141103506	104142.75
0.626079422	3.285930634	2.138041973	104142.75
0.626090995	3.287425995	2.137475014	104142.75
0.626102556	3.280990362	2.139915705	104142.75
0.626114164	3.308656216	2.129435539	104142.75
0.626125717	3.296795845	2.133924484	104142.75
0.626137314	3.239546061	2.155675173	104142.75
0.626148873	3.158073425	2.186866045	104142.75
0.626160442	3.072676659	2.219860792	104142.75
0.626171953	3.113249779	2.204145908	104142.75
0.626183662	2.98946619	2.252310515	104142.75
0.626195115	2.960364103	2.263729811	104142.75
0.626206692	3.074185848	2.219274998	104142.75
0.626218324	2.990252495	2.252002478	104142.75
0.626229934	2.915020943	2.281594992	104142.75
0.626241502	2.924176455	2.277980566	104142.75
0.626253073	2.901149511	2.287078142	104142.75
0.626264648	2.930561781	2.275461912	104142.75
0.62627628	3.010803938	2.243961096	104142.75
0.626287803	3.04726553	2.229738951	104142.75
0.626299368	3.075016499	2.218952656	104142.75
0.626310842	3.004573345	2.246397018	104142.75
0.626322526	2.928457737	2.276291609	104142.75
0.626334164	2.923668385	2.278181076	104142.75
0.626345599	2.917018652	2.280806065	104142.75
0.626357165	2.956771135	2.265142202	104142.75
0.626368741	2.841403484	2.310790777	104142.75
0.626380308	2.890446663	2.291314602	104142.75
0.626391891	2.858102322	2.304147482	104142.75
0.626403467	2.738151074	2.35213995	104142.75
0.626415058	2.742857933	2.350244761	104142.75
0.626426618	2.805080652	2.325283289	104142.75
0.62643819	2.692234278	2.370679617	104142.75
0.626449761	2.699521303	2.367731094	104142.75
0.626461306	2.702346563	2.366588593	104142.75
0.62647288	2.655656099	2.385515928	104142.75
0.626484462	2.654298544	2.386067629	104142.75
0.626496152	2.77280426	2.338210106	104142.75
0.626507718	2.742786408	2.350273609	104142.75
0.626519185	2.620974302	2.399638176	104142.75
0.62653086	2.574078083	2.418820143	104142.75
0.626542451	2.565466642	2.422353268	104142.75
0.626554009	2.586498499	2.413730145	104142.75
0.626565474	2.558976889	2.425018072	104142.75
0.626577077	2.567504406	2.421516895	104142.75
0.626588658	2.539271593	2.433121204	104142.75
0.626600222	2.508587122	2.445774078	104142.75
0.626611813	2.413819552	2.485122919	104142.75
0.626623376	2.408198118	2.487469912	104142.75
0.626634938	2.448380709	2.47072506	104142.75
0.626646528	2.425772667	2.48013711	104142.75
0.626658108	2.431184769	2.477881908	104142.75
0.626669667	2.366303921	2.505007029	104142.75
0.626681241	2.390221596	2.494985104	104142.75
0.626692866	2.349237442	2.512174368	104142.75
0.626704439	2.353961706	2.510189056	104142.75
0.626715994	2.378675222	2.499819994	104142.75
0.626727586	2.356678486	2.509047747	104142.75
0.626739161	2.383829117	2.497661114	104142.75
0.626750746	2.364537001	2.50574851	104142.75
0.626762333	2.339768887	2.516156673	104142.75
0.626773893	2.344977856	2.513965368	104142.75
0.626785474	2.33991909	2.516093493	104142.75
0.626797053	2.251429319	2.553511143	104142.75
0.62680861	2.232252598	2.561668158	104142.75
0.626820205	2.233754873	2.561028481	104142.75
0.62683178	2.226760149	2.564007521	104142.75
0.626843341	2.251588106	2.55344367	104142.75
0.626854926	2.296777964	2.534290075	104142.75
0.626866506	2.275140524	2.543449163	104142.75
0.626878082	2.236263514	2.559960604	104142.75
0.626889657	2.231732845	2.56188941	104142.75
0.62690122	2.186920404	2.581019163	104142.75
0.626912799	2.205535412	2.573061228	104142.75
0.626924394	2.147207737	2.598050833	104142.75
0.626935849	2.073618412	2.629808903	104142.75
0.626947521	2.072448015	2.630316019	104142.75
0.626959106	2.101226091	2.61786437	104142.75
0.626970685	2.124738932	2.607720137	104142.75
0.626982236	2.089632034	2.622876167	104142.75
0.626993819	2.091573477	2.622036457	104142.75
0.627005388	2.065861225	2.633171558	104142.75
0.627016958	2.046373844	2.641631842	104142.75
0.627028539	1.960812211	2.678993225	104142.75
0.627040068	1.901536703	2.705083609	104142.75
0.627051645	1.933712721	2.690900087	104142.75
0.627063222	1.95425427	2.681871414	104142.75
0.627074799	1.988566876	2.666835308	104142.75
0.627086386	2.05879283	2.636238098	104142.75
0.62709799	2.023801327	2.65145421	104142.75
0.627109553	1.961879134	2.678525209	104142.75
0.627121133	1.961382866	2.678742886	104142.75
0.627132702	1.98801744	2.667075634	104142.75
0.627144285	1.999596596	2.662014008	104142.75
0.627155788	1.98477912	2.668492317	104142.75
0.627167346	1.946434975	2.685305834	104142.75
0.62717893	1.876429081	2.716186285	104142.75
0.627190496	1.855509758	2.725460291	104142.75
0.627202077	1.880063534	2.714577198	104142.75
0.62721364	1.853264093	2.726457119	104142.75
0.627225326	1.85039568	2.727730751	104142.75
0.62723679	1.860917568	2.723060846	104142.75
0.627248354	1.780282259	2.758987427	104142.75
0.62725994	1.773777604	2.761899471	104142.75
0.6272716	1.769461632	2.763832808	104142.75
0.627283175	1.787483692	2.755765915	104142.75
0.62729476	1.784067154	2.75729394	104142.75
0.627306325	1.808031917	2.746587753	104142.75
0.627317893	1.776809454	2.760541916	104142.75
0.62732949	1.701631784	2.794338226	104142.75
0.627341067	1.598935008	2.840960026	104142.75
0.627352629	1.648426414	2.818426371	104142.75
0.627364093	1.725288153	2.783673286	104142.75
0.627375787	1.688385129	2.800322294	104142.75
0.627387309	1.687019825	2.80093956	104142.75
0.627398869	1.669229507	2.808991194	104142.75
0.62741046	1.626271606	2.828498364	104142.75
0.627422031	1.563292265	2.857264519	104142.75
0.627433596	1.554925442	2.861101151	104142.75
0.627445145	1.635190487	2.824440718	104142.75
0.627456723	1.632513285	2.825658321	104142.75
0.627468295	1.557990074	2.859695435	104142.75
0.627479874	1.560337663	2.858618975	104142.75
0.627491442	1.544711351	2.865789652	104142.75
0.627502983	1.54945004	2.863613844	104142.75
0.627514671	1.580900788	2.849201679	104142.75
0.627526143	1.547532678	2.864494085	104142.75
0.627537719	1.475071669	2.897896528	104142.75
0.627549288	1.482289314	2.894557476	104142.75
0.627560871	1.457396984	2.906084538	104142.75
0.627572441	1.458366275	2.905635119	104142.75
0.627584019	1.503652453	2.884689808	104142.75
0.6275956	1.470752716	2.899895906	104142.75
0.627607164	1.430440068	2.91860342	104142.75
0.627618809	1.347337246	2.957431078	104142.75
0.627630393	1.355080366	2.953798294	104142.75
0.627641973	1.300102115	2.979659319	104142.75
0.62765353	1.333656073	2.963857412	104142.75
0.627665122	1.387607098	2.938571692	104142.75
0.627676607	1.391950011	2.936542749	104142.75
0.627688201	1.347528815	2.957341194	104142.75
0.62769976	1.359340191	2.951801062	104142.75
0.627711334	1.343357801	2.959299326	104142.75
0.627722908	1.313120604	2.973521471	104142.75
0.627734567	1.217400909	3.018856764	104142.75
0.627746151	1.227343679	3.014125347	104142.75
0.627757724	1.270762801	2.993524313	104142.75
0.627769188	1.252162695	3.002337456	104142.75
0.627780861	1.224230647	3.015606165	104142.75
0.627792393	1.20467186	3.024921656	104142.75
0.627803966	1.199284911	3.027490854	104142.75
0.627815535	1.189914942	3.031963348	104142.75
0.627827118	1.227010846	3.014283657	104142.75
0.627838676	1.194846273	3.029608965	104142.75
0.627850217	1.175371885	3.038914204	104142.75
0.627861905	1.2324965	3.011675358	104142.75
0.627873481	1.20290935	3.025762081	104142.75
0.627884953	1.167343617	3.042756081	104142.75
0.627896518	1.13958633	3.056065321	104142.75
0.627908127	1.180422425	3.036499023	104142.75
0.627919704	1.188109875	3.03282547	104142.75
0.627931268	1.1838063	3.034881592	104142.75
0.627942847	1.140581369	3.05558753	104142.75
0.627954408	1.092787027	3.078597307	104142.75
0.627965965	1.11658001	3.067127466	104142.75
0.627977537	1.121992827	3.064522266	104142.75
0.62798911	1.055333257	3.096713543	104142.75
0.628000687	1.103977919	3.073198795	104142.75
0.628012371	1.132146239	3.059639692	104142.75
0.628023877	1.127027273	3.062100649	104142.75
0.628035469	1.126788735	3.062215328	104142.75
0.628047032	1.072514176	3.088393927	104142.75
0.628058603	1.057687283	3.09557271	104142.75
0.628070175	1.054259539	3.097234011	104142.75
0.628081723	1.044659495	3.101890087	104142.75
0.628093284	1.019553423	3.114089966	104142.75
0.628104875	1.01235044	3.117596388	104142.75
0.628116444	1.014611602	3.116495371	104142.75
0.628128005	1.05617094	3.096307516	104142.75
0.628139631	1.009009719	3.119223595	104142.75
0.628151219	0.963993907	3.14120841	104142.75
0.628162797	0.939520359	3.153206587	104142.75
0.628174367	0.921194792	3.162211895	104142.75
0.62818594	0.866412342	3.189240933	104142.75
0.628197437	0.887922943	3.178608418	104142.75
0.628209001	0.910898149	3.16727972	104142.75
0.628220705	0.895758688	3.174741507	104142.75
0.628232264	0.873520792	3.185724497	104142.75
0.628243833	0.817686141	3.213419199	104142.75
0.628255363	0.795708478	3.224367142	104142.75
0.62826693	0.832653225	3.205978632	104142.75
0.628278505	0.817728758	3.21339798	104142.75
0.628290077	0.847439706	3.19863987	104142.75
0.62830166	0.826804519	3.208884716	104142.75
0.628313279	0.763168395	3.240625382	104142.75
0.628324845	0.762821198	3.240799189	104142.75
0.628336424	0.800454736	3.222000599	104142.75
0.628347987	0.805518866	3.219476938	104142.75
0.628359563	0.811401725	3.216547012	104142.75
0.628371067	0.797928333	3.223260164	104142.75
0.628382651	0.80139941	3.221529722	104142.75
0.628394221	0.804004371	3.220231533	104142.75
0.6284058	0.80304122	3.22071147	104142.75
0.628417379	0.803688109	3.220389128	104142.75
0.62842892	0.802947462	3.2207582	104142.75
0.628440503	0.802092552	3.221184254	104142.75
